Coaxial Probe Method (Opt. 004) 20.0.22083101
Keysight Technologies,P9371A,MY57211749,A.17.25.05

Ch 1
Port:, 1
Probe:, High temperature
Std1:, Air
Std2:, Short
Std3:, 25.0C water
IFBW:, 300.000000 Hz
Power:, -5.000000 dBm
Date:,"Tuesday, February 27, 2024 18:54:39"
frequency(Hz),e',e''
3e+008,4.50628,0.497683
3.01e+008,4.50593,0.493105
3.02e+008,4.50481,0.490106
3.03e+008,4.49692,0.497036
3.04e+008,4.49882,0.494952
3.05e+008,4.5036,0.497731
3.06e+008,4.50087,0.500461
3.07e+008,4.50441,0.496685
3.08e+008,4.50493,0.500012
3.09e+008,4.49962,0.496896
3.1e+008,4.49475,0.492063
3.11e+008,4.49348,0.497926
3.12e+008,4.49567,0.498638
3.13e+008,4.4874,0.501641
3.14e+008,4.49329,0.501175
3.15e+008,4.4922,0.495723
3.16e+008,4.48835,0.50287
3.17e+008,4.48923,0.494396
3.18e+008,4.48347,0.496818
3.19e+008,4.49129,0.500074
3.2e+008,4.48166,0.494139
3.21e+008,4.47956,0.495826
3.22e+008,4.48427,0.49582
3.23e+008,4.48219,0.497313
3.24e+008,4.47856,0.496627
3.25e+008,4.47653,0.495265
3.26e+008,4.47337,0.497023
3.27e+008,4.47448,0.493264
3.28e+008,4.47272,0.495851
3.29e+008,4.47034,0.492573
3.3e+008,4.46292,0.49055
3.31e+008,4.463,0.501039
3.32e+008,4.45931,0.495074
3.33e+008,4.45604,0.498151
3.34e+008,4.45919,0.492016
3.35e+008,4.45862,0.487609
3.36e+008,4.44968,0.4854
3.37e+008,4.45766,0.491197
3.38e+008,4.44322,0.490438
3.39e+008,4.44044,0.49015
3.4e+008,4.44464,0.485121
3.41e+008,4.43706,0.494467
3.42e+008,4.43623,0.489664
3.43e+008,4.43908,0.487535
3.44e+008,4.43163,0.485486
3.45e+008,4.42792,0.486578
3.46e+008,4.42708,0.494852
3.47e+008,4.41924,0.483352
3.48e+008,4.4323,0.483609
3.49e+008,4.42837,0.482664
3.5e+008,4.41784,0.48402
3.51e+008,4.41488,0.486761
3.52e+008,4.41692,0.48291
3.53e+008,4.41533,0.486473
3.54e+008,4.40957,0.485618
3.55e+008,4.4034,0.486429
3.56e+008,4.40317,0.479975
3.57e+008,4.40808,0.479588
3.58e+008,4.40088,0.478781
3.59e+008,4.40286,0.476781
3.6e+008,4.40196,0.48251
3.61e+008,4.39896,0.478273
3.62e+008,4.38966,0.476063
3.63e+008,4.3917,0.478274
3.64e+008,4.38899,0.479846
3.65e+008,4.38517,0.478481
3.66e+008,4.38486,0.471009
3.67e+008,4.38396,0.477794
3.68e+008,4.38182,0.480647
3.69e+008,4.38857,0.477637
3.7e+008,4.38151,0.475178
3.71e+008,4.38,0.476364
3.72e+008,4.38394,0.473349
3.73e+008,4.38427,0.470398
3.74e+008,4.38076,0.473012
3.75e+008,4.3756,0.467191
3.76e+008,4.37846,0.470817
3.77e+008,4.37488,0.475842
3.78e+008,4.3752,0.470743
3.79e+008,4.3744,0.472225
3.8e+008,4.376,0.468633
3.81e+008,4.37789,0.471203
3.82e+008,4.37463,0.470136
3.83e+008,4.37559,0.471504
3.84e+008,4.37497,0.471561
3.85e+008,4.37463,0.471503
3.86e+008,4.37626,0.473755
3.87e+008,4.37461,0.468026
3.88e+008,4.37821,0.47176
3.89e+008,4.38351,0.469704
3.9e+008,4.37973,0.471718
3.91e+008,4.37948,0.469751
3.92e+008,4.37983,0.473669
3.93e+008,4.38212,0.465618
3.94e+008,4.37994,0.472871
3.95e+008,4.38344,0.468271
3.96e+008,4.38056,0.471185
3.97e+008,4.38099,0.469219
3.98e+008,4.38295,0.468103
3.99e+008,4.38784,0.466501
4e+008,4.39213,0.468442
4.01e+008,4.39104,0.467237
4.02e+008,4.39211,0.473525
4.03e+008,4.39017,0.468876
4.04e+008,4.39308,0.46698
4.05e+008,4.39753,0.476319
4.06e+008,4.39851,0.471652
4.07e+008,4.39894,0.468619
4.08e+008,4.40474,0.471646
4.09e+008,4.40341,0.473347
4.1e+008,4.40664,0.468697
4.11e+008,4.40816,0.469934
4.12e+008,4.4114,0.470304
4.13e+008,4.40899,0.471607
4.14e+008,4.4129,0.466006
4.15e+008,4.41024,0.47215
4.16e+008,4.41365,0.470749
4.17e+008,4.41493,0.466844
4.18e+008,4.41572,0.470214
4.19e+008,4.42119,0.474829
4.2e+008,4.41748,0.468288
4.21e+008,4.42102,0.469341
4.22e+008,4.42207,0.467353
4.23e+008,4.42459,0.467841
4.24e+008,4.42358,0.469733
4.25e+008,4.42661,0.472497
4.26e+008,4.42615,0.47436
4.27e+008,4.42507,0.468321
4.28e+008,4.4239,0.475987
4.29e+008,4.43443,0.470222
4.3e+008,4.43098,0.468769
4.31e+008,4.42928,0.473264
4.32e+008,4.43468,0.470592
4.33e+008,4.43419,0.471003
4.34e+008,4.43334,0.471385
4.35e+008,4.43254,0.468603
4.36e+008,4.42747,0.471357
4.37e+008,4.43464,0.47372
4.38e+008,4.43864,0.473801
4.39e+008,4.43409,0.475634
4.4e+008,4.43068,0.467214
4.41e+008,4.4335,0.471014
4.42e+008,4.4321,0.467798
4.43e+008,4.43239,0.472994
4.44e+008,4.43603,0.474255
4.45e+008,4.43379,0.466621
4.46e+008,4.43379,0.470166
4.47e+008,4.42725,0.469315
4.48e+008,4.43229,0.468229
4.49e+008,4.42397,0.473399
4.5e+008,4.42568,0.468828
4.51e+008,4.42815,0.466678
4.52e+008,4.42744,0.469711
4.53e+008,4.42171,0.464541
4.54e+008,4.4197,0.466119
4.55e+008,4.41947,0.468195
4.56e+008,4.42214,0.469396
4.57e+008,4.41628,0.468007
4.58e+008,4.41724,0.466853
4.59e+008,4.4129,0.463046
4.6e+008,4.41294,0.467328
4.61e+008,4.41327,0.463924
4.62e+008,4.40705,0.472091
4.63e+008,4.41052,0.469148
4.64e+008,4.40558,0.466515
4.65e+008,4.40399,0.465361
4.66e+008,4.40044,0.464615
4.67e+008,4.40359,0.463773
4.68e+008,4.39736,0.464626
4.69e+008,4.39519,0.465192
4.7e+008,4.39065,0.462686
4.71e+008,4.38978,0.463307
4.72e+008,4.39052,0.465279
4.73e+008,4.38961,0.461742
4.74e+008,4.38171,0.46274
4.75e+008,4.3789,0.46268
4.76e+008,4.37966,0.460526
4.77e+008,4.3759,0.467383
4.78e+008,4.37646,0.461139
4.79e+008,4.37918,0.464187
4.8e+008,4.37193,0.460157
4.81e+008,4.37081,0.460982
4.82e+008,4.3673,0.458278
4.83e+008,4.36276,0.461834
4.84e+008,4.36416,0.45963
4.85e+008,4.36153,0.456236
4.86e+008,4.36222,0.45666
4.87e+008,4.36031,0.455891
4.88e+008,4.35917,0.457227
4.89e+008,4.35779,0.45648
4.9e+008,4.35404,0.458733
4.91e+008,4.35327,0.456063
4.92e+008,4.34996,0.455635
4.93e+008,4.34885,0.460852
4.94e+008,4.34953,0.458835
4.95e+008,4.34746,0.458627
4.96e+008,4.34534,0.45725
4.97e+008,4.34586,0.459364
4.98e+008,4.34032,0.455837
4.99e+008,4.34125,0.455841
5e+008,4.33949,0.454647

